Black Body Radiation Experiment Wed, Sep 23, 2020 11:36 AM
Sensor Position (Degrees)	Light Intensity (Volts)
0.00000	-0.01776
0.00000	-0.01083
0.00000	-0.01535
0.00000	-0.01454
0.00000	-0.01631
0.00000	-0.01261
0.00000	-0.01164
0.00000	-0.01116
0.00000	-0.01196
0.00000	-0.01357
0.00000	-0.01164
0.00000	-0.01567
0.00000	-0.01083
0.00000	-0.01341
0.00000	-0.01438
0.00000	-0.01454
0.00000	-0.01390
0.00000	-0.01873
0.00000	-0.01696
0.00000	-0.01357
0.00000	-0.01357
0.00000	-0.01261
0.00000	-0.01470
0.00000	-0.01502
0.00000	-0.01341
0.00000	-0.01873
0.00000	-0.01551
0.00000	-0.01470
0.00000	-0.01212
0.00000	-0.01663
0.00000	-0.01083
0.00000	-0.01180
0.00000	-0.01148
0.00000	-0.01599
0.00000	-0.01567
0.00000	-0.01196
0.00000	-0.01116
0.00000	-0.01663
0.00000	-0.01696
0.00000	-0.01390
0.00000	-0.01631
0.00000	-0.01454
0.00000	-0.01615
0.00000	-0.01148
0.00000	-0.01470
0.00000	-0.01357
0.00000	-0.01438
0.00000	-0.01422
0.00000	-0.01647
0.00000	-0.01518
0.00000	-0.01470
0.00000	-0.01309
0.00000	-0.01905
0.00000	-0.01599
0.00000	-0.01277
0.00000	-0.00955
0.00000	-0.01116
0.00000	-0.01518
0.00000	-0.01647
0.00000	-0.01406
0.00000	-0.01019
0.00000	-0.01728
0.00000	-0.01615
0.00000	-0.01857
0.00000	-0.01293
0.00000	-0.01293
0.00000	-0.01680
0.00000	-0.01277
0.00000	-0.01470
0.00000	-0.01067
0.00000	-0.01293
0.00000	-0.01486
0.00000	-0.00874
0.00000	-0.01535
0.00000	-0.01228
0.00000	-0.01728
0.00000	-0.01261
0.00000	-0.01406
0.00000	-0.01406
0.00000	-0.01438
0.00000	-0.00955
0.00000	-0.01083
0.00000	-0.01615
0.00000	-0.00955
0.00000	-0.01261
0.00000	-0.01551
0.00000	-0.01132
0.00000	-0.01116
0.00000	-0.01551
0.00000	-0.01309
0.00000	-0.01261
0.00000	-0.01035
0.00000	-0.01454
0.00000	-0.01277
0.00000	-0.01535
0.00000	-0.01293
0.00000	-0.01792
0.00000	-0.01454
0.00000	-0.01535
0.00000	-0.01825
0.00000	-0.01341
0.00000	-0.01261
0.00000	-0.01196
0.00000	-0.01357
0.00000	-0.01277
0.00000	-0.01148
0.00000	-0.00922
0.00000	-0.01196
0.00000	-0.01116
0.00000	-0.01486
0.00000	-0.01019
0.00000	-0.01196
0.00000	-0.01390
0.00000	-0.01261
0.00000	-0.01196
0.00000	-0.01180
0.00000	-0.01406
0.00000	-0.01196
0.00000	-0.01196
0.00000	-0.01132
0.00000	-0.00794
0.00000	-0.01261
0.00000	-0.01551
0.00000	-0.01019
0.00000	-0.01615
0.00000	-0.01696
0.00000	-0.01406
0.00000	-0.01470
0.00000	-0.01535
0.00000	-0.01277
0.00000	-0.01293
0.00000	-0.01663
0.00000	-0.01341
0.00000	-0.01502
0.00000	-0.01583
0.00000	-0.01551
0.00000	-0.01309
0.00000	-0.01454
0.00000	-0.01663
0.00000	-0.01486
0.00000	-0.01100
0.00000	-0.01551
0.00000	-0.01615
0.00000	-0.00987
0.00000	-0.01583
0.00000	-0.01567
0.00000	-0.01277
0.00000	-0.01051
0.00000	-0.01228
0.00000	-0.01148
0.00000	-0.01518
0.00000	-0.01309
0.00000	-0.01003
0.00000	-0.01792
0.00000	-0.01454
0.00000	-0.01116
0.00000	-0.01212
0.00000	-0.01567
0.00000	-0.01196
0.00000	-0.01212
0.00000	-0.01083
0.00000	-0.01357
0.00000	-0.01486
0.00000	-0.00810
0.00000	-0.01454
0.00000	-0.01551
0.00000	-0.01857
0.00000	-0.00987
0.00000	-0.01309
0.00000	-0.01277
0.00000	-0.01116
0.00000	-0.01116
0.00000	-0.01277
0.00000	-0.01132
0.00000	-0.01261
0.00000	-0.01583
0.00000	-0.01583
0.00000	-0.01245
0.00000	-0.01132
0.00000	-0.01712
0.00000	-0.01341
0.00000	-0.02034
0.00000	-0.01502
0.00000	-0.01406
0.00000	-0.01583
0.00000	-0.01293
0.00000	-0.01245
0.00000	-0.01841
0.00000	-0.01261
0.00000	-0.01309
0.00000	-0.01615
0.00000	-0.01357
0.00000	-0.01535
0.00000	-0.01132
0.00000	-0.01293
0.00000	-0.01631
0.00000	-0.01454
0.00000	-0.01535
0.00000	-0.01341
0.00000	-0.02147
0.00000	-0.01341
0.00000	-0.01309
0.00000	-0.01261
0.00000	-0.01551
0.01035	-0.01615
0.01035	-0.01277
0.01035	-0.01518
0.01035	-0.01196
0.01035	-0.01567
0.01035	-0.01390
0.01035	-0.01744
0.01035	-0.01100
0.02070	-0.01164
0.02070	-0.01599
0.02070	-0.01373
0.02070	-0.01116
0.02070	-0.01551
0.02070	-0.01470
0.02070	-0.01921
0.02070	-0.01535
0.02070	-0.01293
0.02070	-0.01132
0.02070	-0.01470
0.02070	-0.01180
0.02070	-0.01277
0.02070	-0.01277
0.02070	-0.01245
0.02070	-0.01373
0.02070	-0.01228
0.02070	-0.01245
0.02070	-0.01696
0.02070	-0.01390
0.02070	-0.01261
0.02070	-0.01390
0.02070	-0.00810
0.02070	-0.01277
0.02070	-0.01615
0.02070	-0.01277
0.02070	-0.01116
0.02070	-0.01341
0.02070	-0.01357
0.02070	-0.01502
0.02070	-0.01148
0.02070	-0.01341
0.02070	-0.01454
0.02070	-0.01180
0.02070	-0.01502
0.02070	-0.01502
0.02070	-0.01712
0.02070	-0.01631
0.02070	-0.01067
0.02070	-0.01518
0.02070	-0.01438
0.02070	-0.01261
0.02070	-0.01390
0.02070	-0.01100
0.02070	-0.01277
0.02070	-0.01325
0.02070	-0.01551
0.02070	-0.01293
0.02070	-0.01647
0.02070	-0.01583
0.02070	-0.01744
0.02070	-0.01212
0.02070	-0.01486
0.02070	-0.01518
0.02070	-0.01406
0.02070	-0.01502
0.02070	-0.01583
0.02070	-0.01357
0.02070	-0.01647
0.02070	-0.00987
0.04139	-0.00938
0.06209	-0.01083
0.09313	-0.01551
0.09313	-0.01518
0.09313	-0.01502
0.09313	-0.01083
0.09313	-0.01019
0.09313	-0.01003
0.10348	-0.01196
0.10348	-0.00938
0.10348	-0.01277
0.10348	-0.01486
0.11383	-0.01486
0.11383	-0.01486
0.11383	-0.01180
0.12418	-0.01261
0.12418	-0.01486
0.12418	-0.00842
0.15522	-0.01325
0.21731	-0.01228
0.28975	-0.01583
0.36219	-0.01100
0.42428	-0.01261
0.46567	-0.01180
0.49671	-0.00955
0.53811	-0.01712
0.56915	-0.01615
0.61054	-0.01583
0.66228	-0.01341
0.71403	-0.01390
0.75542	-0.01132
0.79681	-0.01277
0.83820	-0.01148
0.87960	-0.00826
0.93134	-0.01019
0.99343	-0.01406
1.07621	-0.01341
1.12795	-0.01196
1.15900	-0.01035
1.19004	-0.01100
1.22109	-0.01148
1.24178	-0.00858
1.28318	-0.01132
1.32457	-0.01051
1.35561	-0.00987
1.39701	-0.01406
1.42805	-0.01228
1.45910	-0.01277
1.50049	-0.01470
1.53153	-0.01293
1.55223	-0.01277
1.59362	-0.01470
1.62467	-0.01164
1.68676	-0.01760
1.76954	-0.01325
1.82128	-0.01390
1.88337	-0.01309
1.94546	-0.01003
1.99720	-0.01390
2.03859	-0.01293
2.07999	-0.01228
2.13173	-0.01148
2.17312	-0.01212
2.21451	-0.01341
2.25591	-0.01277
2.29730	-0.01808
2.34904	-0.01100
2.39043	-0.01148
2.44217	-0.01309
2.48357	-0.01100
2.51461	-0.01567
2.54566	-0.01599
2.57670	-0.01277
2.61809	-0.01615
2.66983	-0.01228
2.72158	-0.01454
2.76297	-0.01245
2.80436	-0.01067
2.83541	-0.01228
2.86645	-0.01196
2.90784	-0.01261
2.93889	-0.01019
2.96993	-0.00987
2.99063	-0.01422
3.02167	-0.01148
3.06307	-0.01438
3.11481	-0.01100
3.17690	-0.01325
3.22864	-0.01325
3.28038	-0.01341
3.32177	-0.01067
3.37351	-0.01551
3.43560	-0.01325
3.49769	-0.01454
3.57013	-0.01019
3.63222	-0.01470
3.71500	-0.01647
3.78744	-0.01647
3.87023	-0.01245
3.94266	-0.00955
4.01510	-0.01438
4.08754	-0.01148
4.18067	-0.01309
4.25311	-0.01341
4.33589	-0.01228
4.40833	-0.01196
4.50147	-0.01083
4.59460	-0.01325
4.66704	-0.01406
4.72913	-0.00890
4.79121	-0.01696
4.85330	-0.00955
4.91539	-0.01325
4.96713	-0.01277
5.01888	-0.00955
5.07062	-0.01406
5.12236	-0.01116
5.16375	-0.01067
5.21549	-0.01277
5.26723	-0.01245
5.30862	-0.01019
5.36037	-0.01228
5.42245	-0.01293
5.47420	-0.01212
5.53628	-0.01067
5.57768	-0.01180
5.62942	-0.01309
5.68116	-0.00858
5.73290	-0.01132
5.78464	-0.00922
5.83638	-0.01535
5.89847	-0.01535
5.96056	-0.01083
6.00195	-0.01245
6.04335	-0.01325
6.10544	-0.01760
6.14683	-0.01100
6.19857	-0.01132
6.23996	-0.01873
6.28136	-0.01325
6.32275	-0.01406
6.37449	-0.01373
6.42623	-0.01583
6.46762	-0.01051
6.51936	-0.01293
6.56076	-0.01325
6.60215	-0.01325
6.64354	-0.01019
6.67459	-0.00842
6.70563	-0.01325
6.73668	-0.01245
6.75737	-0.01486
6.77807	-0.01212
6.79876	-0.01454
6.81946	-0.01180
6.84016	-0.01245
6.87120	-0.01792
6.91259	-0.01518
6.98503	-0.01486
7.06782	-0.01373
7.14026	-0.01341
7.19200	-0.01212
7.25409	-0.01132
7.30583	-0.01390
7.35757	-0.01438
7.40931	-0.01583
7.46105	-0.01518
7.50244	-0.00890
7.55418	-0.01422
7.59558	-0.01438
7.63697	-0.01228
7.68871	-0.01309
7.74045	-0.01583
7.79219	-0.01373
7.85428	-0.01680
7.90602	-0.01373
7.96811	-0.01470
8.01985	-0.01325
8.08194	-0.01470
8.14403	-0.01760
8.18542	-0.01583
8.23716	-0.01390
8.28891	-0.01212
8.34065	-0.01873
8.39239	-0.01164
8.43378	-0.01615
8.47517	-0.01551
8.50622	-0.01454
8.54761	-0.01228
8.59935	-0.01454
8.64074	-0.01293
8.68214	-0.01245
8.72353	-0.01567
8.77527	-0.01599
8.81666	-0.01535
8.86840	-0.01486
8.90980	-0.01100
8.95119	-0.01551
9.00293	-0.01647
9.03398	-0.01663
9.07537	-0.01228
9.11676	-0.01341
9.14781	-0.01583
9.19955	-0.01551
9.24094	-0.01518
9.30303	-0.01631
9.36512	-0.01792
9.41686	-0.01760
9.47895	-0.01663
9.54104	-0.01631
9.59278	-0.01518
9.64452	-0.01486
9.70661	-0.01486
9.76870	-0.01422
9.81009	-0.01277
9.87218	-0.01535
9.92392	-0.01905
9.98601	-0.01277
10.06879	-0.01325
10.12054	-0.01148
10.18262	-0.01406
10.24471	-0.01261
10.29646	-0.01261
10.35854	-0.01180
10.41029	-0.01309
10.47237	-0.01422
10.53446	-0.01277
10.59655	-0.01067
10.65864	-0.00955
10.71038	-0.01164
10.78282	-0.01212
10.85526	-0.01148
10.91735	-0.01309
10.96909	-0.01116
11.03118	-0.01422
11.09327	-0.01438
11.14501	-0.01148
11.20710	-0.01212
11.26919	-0.01470
11.33127	-0.00987
11.38302	-0.01261
11.44510	-0.01180
11.48650	-0.00971
11.53824	-0.01035
11.60033	-0.00955
11.67277	-0.01293
11.72451	-0.00906
11.78660	-0.01390
11.83834	-0.00777
11.89008	-0.00874
11.95217	-0.00955
12.00391	-0.00826
12.04530	-0.00761
12.09704	-0.00681
12.14878	-0.00729
12.23157	-0.00971
12.30401	-0.00439
12.36609	-0.00439
12.44888	-0.00069
12.50062	-0.00359
12.59375	-0.00197
12.65584	-0.00214
12.71793	-0.00020
12.79037	0.00447
12.85246	0.00238
12.93525	0.00753
12.99733	0.01349
13.08012	0.01687
13.14221	0.02074
13.21465	0.02428
13.28708	0.02332
13.34917	0.03250
13.40091	0.03363
13.46300	0.04072
13.51474	0.04378
13.59753	0.05006
13.65962	0.05683
13.74240	0.05973
13.83554	0.06859
13.92867	0.07149
14.00111	0.08308
14.07355	0.08437
14.15633	0.09581
14.21842	0.09823
14.30121	0.10644
14.36330	0.10677
14.44608	0.11498
14.49782	0.12400
14.58061	0.12706
14.65305	0.13109
14.73583	0.12916
14.81862	0.13335
14.86001	0.13512
14.90140	0.13560
14.96349	0.13512
15.00488	0.13818
15.04628	0.13367
15.08767	0.13254
15.11871	0.13125
15.16011	0.12900
15.20150	0.13303
15.24289	0.12787
15.28429	0.12884
15.31533	0.11933
15.34637	0.12159
15.36707	0.11853
15.38777	0.11547
15.39812	0.11369
15.41881	0.11257
15.44986	0.11063
15.49125	0.10548
15.53264	0.10403
15.60508	0.10161
15.65682	0.10177
15.70856	0.09807
15.74995	0.09307
15.82239	0.09050
15.89483	0.08486
15.99831	0.08083
16.08110	0.07277
16.15353	0.06794
16.21562	0.06698
16.27771	0.05522
16.33980	0.05087
16.39154	0.04716
16.43294	0.04281
16.48468	0.04297
16.51572	0.03411
16.54677	0.03234
16.57781	0.03137
16.59851	0.02638
16.61920	0.02348
16.63990	0.02219
16.66060	0.01784
16.68129	0.01832
16.69164	0.01848
16.70199	0.01542
16.71234	0.01607
16.71234	0.01285
16.71234	0.01140
16.71234	0.01091
16.72268	0.00769
16.72268	0.00769
16.72268	0.01156
16.72268	0.01301
16.72268	0.01188
16.73303	0.00914
16.73303	0.01091
16.74338	0.00721
16.74338	0.00850
16.75373	0.00576
16.75373	0.01075
16.76408	0.01124
16.76408	0.00753
16.77443	0.01011
16.79512	0.00753
16.82617	0.00173
16.89860	0.00737
16.97104	0.00656
17.03313	0.00141
17.07452	0.00447
17.11592	0.00350
17.15731	0.00093
17.20905	-0.00069
17.26079	-0.00407
17.31253	-0.00230
17.34358	-0.00455
17.38497	-0.00729
17.41601	-0.00326
17.45741	-0.00632
17.48845	-0.00391
17.52984	-0.00520
17.56089	-0.00777
17.58159	-0.00938
17.61263	-0.00858
17.65402	-0.00745
17.69542	-0.00697
17.73681	-0.00777
17.77820	-0.00504
17.82994	-0.00649
17.87133	-0.00826
17.91273	-0.00713
17.95412	-0.01083
18.00586	-0.01148
18.04725	-0.00874
18.08865	-0.00938
18.13004	-0.00697
18.17143	-0.00874
18.23352	-0.00794
18.29561	-0.00987
18.35770	-0.00858
18.40944	-0.00971
18.46118	-0.00906
18.51292	-0.01051
18.56466	-0.00987
18.60606	-0.00874
18.65780	-0.01325
18.68884	-0.00810
18.75093	-0.00858
18.81302	-0.01438
18.88546	-0.00890
18.93720	-0.00504
18.98894	-0.00971
19.05103	-0.00890
19.13381	-0.00987
19.19590	-0.01132
19.26834	-0.00761
19.32008	-0.01245
19.37182	-0.00665
19.43391	-0.01100
19.49600	-0.01019
19.56844	-0.00745
19.63053	-0.01100
19.68227	-0.00794
19.73401	-0.01293
19.79610	-0.00987
19.84784	-0.01116
19.90993	-0.00922
19.96167	-0.00874
20.00306	-0.00987
20.04446	-0.00858
20.08585	-0.01245
20.11689	-0.00713
20.13759	-0.01454
20.15829	-0.01051
20.17898	-0.00858
20.19968	-0.00826
20.23072	-0.01003
20.26177	-0.00745
20.30316	-0.00955
20.34455	-0.00359
20.39629	-0.01035
20.43769	-0.00794
20.47908	-0.00858
20.52047	-0.01228
20.57221	-0.01164
20.62395	-0.01035
20.66535	-0.00922
20.70674	-0.01180
20.74813	-0.00794
20.78953	-0.01261
20.83092	-0.00697
20.87231	-0.00745
20.91370	-0.00794
20.96545	-0.00906
21.00684	-0.00922
21.04823	-0.00922
21.07928	-0.00616
21.12067	-0.00761
21.16206	-0.01228
21.21380	-0.00777
21.26554	-0.00649
21.31728	-0.00826
21.36902	-0.00842
21.41042	-0.01083
21.47251	-0.00713
21.51390	-0.00745
21.56564	-0.00938
21.59669	-0.00745
21.64843	-0.00874
21.68982	-0.00761
21.73121	-0.00713
21.78295	-0.00697
21.83469	-0.00165
21.87609	-0.00890
21.91748	-0.00906
21.95887	-0.00600
21.98992	-0.00665
22.03131	-0.00761
22.06235	-0.00955
22.09340	-0.01051
22.13479	-0.00681
22.16584	-0.00616
22.20723	-0.00649
22.24862	-0.00600
22.29001	-0.00552
22.34176	-0.00681
22.37280	-0.00794
22.40384	-0.00794
22.44524	-0.00713
22.46593	-0.00794
22.50733	-0.00552
22.53837	-0.00987
22.56942	-0.00745
22.60046	-0.00632
22.64185	-0.00713
22.67290	-0.00874
22.70394	-0.00584
22.72464	-0.00745
22.75568	-0.01228
22.77638	-0.00761
22.80742	-0.00423
22.84882	-0.00987
22.89021	-0.00987
22.93160	-0.00794
22.95230	-0.00342
22.99369	-0.00955
23.02474	-0.00552
23.06613	-0.01003
23.09717	-0.00568
23.13857	-0.00616
23.16961	-0.00375
23.21100	-0.00955
23.24205	-0.00858
23.28344	-0.01116
23.32483	-0.00971
23.35588	-0.00810
23.39727	-0.00745
23.42832	-0.00681
23.46971	-0.00616
23.50075	-0.00375
23.53180	-0.00600
23.55249	-0.00794
23.58354	-0.00697
23.59389	-0.00890
23.61458	-0.00890
23.63528	-0.00890
23.64563	-0.00938
23.66632	-0.00536
23.70772	-0.00858
23.74911	-0.00471
23.78015	-0.00745
23.81120	-0.00632
23.84224	-0.00761
23.86294	-0.01148
23.89398	-0.00504
23.91468	-0.00745
23.94573	-0.00971
23.96642	-0.01212
23.98712	-0.01019
24.00781	-0.00922
24.03886	-0.00616
24.06990	-0.00794
24.09060	-0.00858
24.12165	-0.00584
24.14234	-0.00906
24.17339	-0.00455
24.19408	-0.00745
24.22513	-0.01067
24.25617	-0.00858
24.28722	-0.01003
24.32861	-0.00697
24.35965	-0.01035
24.39070	-0.01003
24.42174	-0.01083
24.45279	-0.00632
24.49418	-0.00826
24.53557	-0.00874
24.57697	-0.00858
24.60801	-0.00826
24.63905	-0.00761
24.67010	-0.00777
24.70114	-0.01035
24.74254	-0.00777
24.79428	-0.00842
24.83567	-0.00971
24.87706	-0.00987
24.92880	-0.00729
24.97020	-0.00971
25.01159	-0.00971
25.05298	-0.00842
25.08403	-0.00826
25.12542	-0.00616
25.15646	-0.00842
25.19786	-0.00326
25.23925	-0.00665
25.29099	-0.00810
25.33238	-0.00713
25.37378	-0.00842
25.41517	-0.00552
25.45656	-0.00649
25.49796	-0.01051
25.53935	-0.00874
25.58074	-0.01164
25.62213	-0.01067
25.67387	-0.00938
25.71527	-0.00745
25.75666	-0.00697
25.79805	-0.00842
25.82910	-0.00504
25.86014	-0.00665
25.90153	-0.00697
25.93258	-0.00826
25.97397	-0.00777
26.01537	-0.00777
26.05676	-0.01164
26.07745	-0.01261
26.09815	-0.00632
26.12920	-0.00971
26.16024	-0.00745
26.19128	-0.01051
26.22233	-0.00922
26.26372	-0.00810
26.30511	-0.00987
26.34651	-0.00987
26.37755	-0.00520
26.40860	-0.00826
26.43964	-0.00858
26.47069	-0.00858
26.50173	-0.00745
26.52243	-0.00955
26.55347	-0.00922
26.60521	-0.00826
26.65695	-0.00777
26.69835	-0.01196
26.73974	-0.01035
26.77078	-0.01261
26.81218	-0.01019
26.85357	-0.00568
26.88461	-0.00342
26.93635	-0.00971
26.97775	-0.00616
27.02949	-0.00858
27.07088	-0.00777
27.13297	-0.00681
27.18471	-0.00777
27.24680	-0.00665
27.30889	-0.00906
27.36063	-0.00890
27.42272	-0.00810
27.48481	-0.00794
27.53655	-0.00922
27.59864	-0.00987
27.67108	-0.00842
27.73317	-0.00681
27.78491	-0.01196
27.83665	-0.00697
27.88839	-0.00761
27.92978	-0.00955
27.97117	-0.00777
28.01257	-0.00890
28.04361	-0.01341
28.07466	-0.01019
28.11605	-0.00536
28.14709	-0.00294
28.16779	-0.00504
28.18849	-0.00439
28.21953	-0.00697
28.24023	-0.00600
28.27127	-0.00616
28.30232	-0.00600
28.32301	-0.00536
28.35406	-0.00375
28.39545	-0.00681
28.41615	-0.00552
28.44719	-0.00794
28.46789	-0.00552
28.49893	-0.00777
28.54032	-0.00504
28.58172	-0.00761
28.62311	-0.00471
28.65416	-0.01148
28.68520	-0.00407
28.71624	-0.00665
28.75764	-0.00858
28.79903	-0.00536
28.84042	-0.00729
28.87147	-0.00665
28.89216	-0.00729
28.91286	-0.00455
28.93356	-0.00938
28.95425	-0.00520
28.98530	-0.01019
29.00599	-0.00794
29.03704	-0.00971
29.06808	-0.00326
29.11982	-0.00745
29.16122	-0.00745
29.20261	-0.00922
29.22331	-0.00681
29.24400	-0.00616
29.27505	-0.00665
29.30609	-0.00665
29.32679	-0.00616
29.34748	-0.00729
29.36818	-0.00745
29.38888	-0.00713
29.41992	-0.00955
29.45097	-0.01116
29.50271	-0.00729
29.54410	-0.01067
29.57514	-0.01003
29.61654	-0.00987
29.65793	-0.01083
29.68897	-0.00761
29.72002	-0.00987
29.76141	-0.01180
29.79246	-0.00826
29.82350	-0.00632
29.84420	-0.00616
29.87524	-0.00810
29.90629	-0.01067
29.93733	-0.00777
29.97872	-0.00713
30.03047	-0.01100
30.07186	-0.00729
30.11325	-0.00842
30.14430	-0.00407
30.18569	-0.00471
30.22708	-0.00777
30.28917	-0.00745
30.33056	-0.00697
30.37196	-0.00407
30.41335	-0.01051
30.46509	-0.00665
30.50648	-0.00874
30.54787	-0.00600
30.58927	-0.01212
30.63066	-0.00729
30.67205	-0.00649
30.71345	-0.00922
30.74449	-0.00713
30.78588	-0.01116
30.82728	-0.00729
30.86867	-0.00616
30.91006	-0.00987
30.95145	-0.00359
30.98250	-0.00568
31.02389	-0.00987
31.06528	-0.00729
31.10668	-0.00874
31.14807	-0.00826
31.18946	-0.00552
31.23086	-0.00810
31.27225	-0.00826
31.31364	-0.00810
31.35503	-0.00504
31.38608	-0.00842
31.42747	-0.00713
31.46886	-0.00665
31.49991	-0.00649
31.53095	-0.00729
31.57235	-0.00842
31.61374	-0.00681
31.66548	-0.00906
31.70687	-0.00777
31.73792	-0.00665
31.77931	-0.00955
31.80001	-0.01116
31.83105	-0.01051
31.85175	-0.00520
31.86210	-0.01035
31.88279	-0.00584
31.90349	-0.00858
31.92418	-0.00794
31.95523	-0.00890
31.97593	-0.00971
32.01732	-0.00971
32.04836	-0.00584
32.07941	-0.00504
32.11045	-0.00810
32.13115	-0.00568
32.16219	-0.00842
32.20359	-0.00520
32.23463	-0.00310
32.27602	-0.00681
32.30707	-0.00407
32.33811	-0.00375
32.35881	-0.00616
32.40020	-0.00729
32.44159	-0.00197
32.47264	-0.00407
32.50368	-0.00391
32.53473	-0.00987
32.56577	-0.00069
32.58647	-0.00568
32.61751	-0.00359
32.64856	-0.00697
32.66926	-0.00729
32.70030	-0.00214
32.73134	-0.00471
32.76239	-0.00407
32.79343	-0.00359
32.82448	-0.00407
32.86587	-0.00761
32.89692	-0.00761
32.92796	-0.00552
32.95900	-0.00761
32.97970	-0.01003
33.01075	-0.00890
33.04179	-0.00616
33.06249	-0.00536
33.10388	-0.00584
33.14527	-0.00729
33.18666	-0.00826
33.22806	-0.00600
33.25910	-0.00649
33.30050	-0.00552
33.34189	-0.00874
33.38328	-0.00906
33.42467	-0.00842
33.47641	-0.00632
33.51781	-0.00600
33.55920	-0.00552
33.61094	-0.01019
33.64199	-0.00487
33.68338	-0.00745
33.72477	-0.00938
33.76616	-0.00971
33.81790	-0.01212
33.87999	-0.00600
33.94208	-0.00761
33.99382	-0.00375
34.03522	-0.00922
34.07661	-0.00713
34.13870	-0.00890
34.20079	-0.00713
34.25253	-0.00922
34.30427	-0.00890
34.36636	-0.00858
34.42845	-0.00794
34.50089	-0.00810
34.56297	-0.00649
34.61472	-0.00536
34.66646	-0.00649
34.70785	-0.00584
34.75959	-0.00794
34.81133	-0.01035
34.86307	-0.00471
34.90447	-0.01180
34.93551	-0.00777
34.96655	-0.00649
34.98725	-0.00826
35.00795	-0.00794
35.02864	-0.00890
35.05969	-0.00826
35.08038	-0.00697
35.12178	-0.00616
35.15282	-0.01116
35.19421	-0.00938
35.23561	-0.00584
35.27700	-0.01196
35.31839	-0.00794
35.37013	-0.00810
35.42188	-0.00681
35.48396	-0.00987
35.53571	-0.01067
35.59779	-0.00890
35.64954	-0.01116
35.70128	-0.00874
35.76337	-0.00616
35.80476	-0.00858
35.85650	-0.00665
35.90824	-0.00761
35.94963	-0.01051
36.01172	-0.00810
36.06346	-0.00794
36.11520	-0.00842
36.15660	-0.00665
36.18764	-0.01019
36.21869	-0.01116
36.26008	-0.01067
36.31182	-0.00713
36.35321	-0.00842
36.38426	-0.00922
36.41530	-0.01035
36.43600	-0.00874
36.45669	-0.00745
36.47739	-0.01051
36.49809	-0.00777
36.52913	-0.00423
36.56018	-0.00794
36.60157	-0.00616
36.66366	-0.01100
36.70505	-0.00552
36.74644	-0.00922
36.77749	-0.00665
36.79819	-0.00938
36.82923	-0.00745
36.86027	-0.01051
36.90167	-0.00439
36.94306	-0.01067
37.00515	-0.00777
37.05689	-0.00874
37.10863	-0.00938
37.15002	-0.00745
37.18107	-0.00520
37.20176	-0.01116
37.23281	-0.01067
37.25351	-0.01325
37.29490	-0.00890
37.33629	-0.00471
37.37768	-0.00665
37.40873	-0.01003
37.43977	-0.00649
37.46047	-0.00906
37.48117	-0.00713
37.50186	-0.01341
37.52256	-0.00649
37.54326	-0.00906
37.57430	-0.00874
37.59500	-0.00729
37.62604	-0.00922
37.65709	-0.01067
37.67778	-0.00520
37.69848	-0.00987
37.71917	-0.00761
37.73987	-0.01051
37.76057	-0.00761
37.78126	-0.00810
37.81231	-0.00584
37.84335	-0.00794
37.87440	-0.00745
37.92614	-0.00568
37.96753	-0.01051
38.00892	-0.00504
38.05032	-0.00826
38.07101	-0.01132
38.11241	-0.00632
38.15380	-0.00842
38.19519	-0.00906
38.24693	-0.01019
38.28833	-0.00971
38.31937	-0.00777
38.35041	-0.01228
38.37111	-0.00874
38.40216	-0.01035
38.44355	-0.00874
38.49529	-0.00520
38.53668	-0.00632
38.56773	-0.01196
38.60912	-0.00922
38.64016	-0.00794
38.67121	-0.01116
38.69191	-0.01083
38.73330	-0.00794
38.77469	-0.01051
38.81608	-0.00729
38.86782	-0.00681
38.89887	-0.00794
38.91957	-0.00777
38.94026	-0.00729
38.96096	-0.01180
38.98165	-0.00890
39.00235	-0.00423
39.02305	-0.00777
39.04374	-0.00487
39.07479	-0.00616
39.09548	-0.00826
39.13688	-0.00649
39.17827	-0.01212
39.23001	-0.00842
39.26106	-0.00955
39.30245	-0.01035
39.33349	-0.00922
39.37489	-0.00987
39.42663	-0.01003
39.48872	-0.00987
39.53011	-0.00681
39.58185	-0.00826
39.61289	-0.00729
39.64394	-0.01083
39.66464	-0.00938
39.69568	-0.01261
39.72672	-0.01357
39.74742	-0.00874
39.77847	-0.00890
39.80951	-0.01051
39.84055	-0.01164
39.87160	-0.01116
39.90264	-0.01325
39.95439	-0.01035
39.99578	-0.00890
40.02682	-0.01132
40.05787	-0.00777
40.08891	-0.01212
40.11996	-0.00971
40.16135	-0.01067
40.21309	-0.01341
40.26483	-0.01100
40.30622	-0.01100
40.34762	-0.01100
40.38901	-0.00697
40.42005	-0.01083
40.48214	-0.00504
40.54423	-0.00938
40.60632	-0.00632
40.64771	-0.00922
40.68911	-0.00955
40.72015	-0.00922
40.76154	-0.00681
40.80294	-0.01228
40.84433	-0.01293
40.89607	-0.00697
40.93746	-0.00729
40.97886	-0.00938
41.03060	-0.00632
41.08234	-0.00971
41.16512	-0.01051
41.22721	-0.01245
41.28930	-0.01261
41.35139	-0.00938
41.41348	-0.00826
41.48592	-0.01245
41.55836	-0.01212
41.64114	-0.00955
41.72393	-0.00955
41.80671	-0.00874
41.86880	-0.01245
41.94124	-0.01003
41.99298	-0.01245
42.05507	-0.01422
42.10681	-0.01116
42.15855	-0.01325
42.21029	-0.01245
42.24134	-0.01341
42.27238	-0.00971
42.31377	-0.00890
42.34482	-0.00842
42.38621	-0.01180
42.44830	-0.00777
42.48969	-0.00922
42.52074	-0.00955
42.56213	-0.01051
42.60352	-0.00842
42.65526	-0.01132
42.70701	-0.00520
42.75875	-0.00794
42.81049	-0.00987
42.86223	-0.00987
42.91397	-0.00938
42.95536	-0.01406
43.01745	-0.00874
43.07954	-0.01196
43.13128	-0.00761
43.18302	-0.01164
43.24511	-0.00922
43.30720	-0.00761
43.35894	-0.01390
43.41068	-0.00922
43.45208	-0.00520
43.51416	-0.01341
43.57625	-0.01309
43.62799	-0.01132
43.69008	-0.01422
43.74182	-0.00810
43.79357	-0.01051
43.86600	-0.01228
43.93844	-0.01228
44.00053	-0.01357
44.05227	-0.01583
44.10401	-0.01083
44.14540	-0.01518
44.19715	-0.01003
44.25923	-0.01406
44.31098	-0.01019
44.35237	-0.00938
44.40411	-0.01116
44.46620	-0.01051
44.52829	-0.00938
44.60073	-0.01228
44.66281	-0.00987
44.73525	-0.01067
44.79734	-0.01212
44.86978	-0.01180
44.92152	-0.01309
44.97326	-0.00938
45.04570	-0.01277
45.11814	-0.01357
45.20092	-0.01422
45.28371	-0.01309
45.36649	-0.01841
45.45963	-0.01196
45.55276	-0.01051
45.63554	-0.01438
45.69763	-0.01132
45.74937	-0.01196
45.79077	-0.01438
45.83216	-0.01228
45.86321	-0.00810
45.89425	-0.01438
45.92529	-0.01341
45.96669	-0.01164
46.00808	-0.01261
46.07017	-0.01116
46.13226	-0.01100
46.20470	-0.01647
46.26678	-0.01390
46.32887	-0.01003
46.39096	-0.01148
46.47375	-0.01277
46.55653	-0.01164
46.64967	-0.01245
46.75315	-0.01744
46.84628	-0.01792
46.91872	-0.01116
46.98081	-0.01100
47.04290	-0.01309
47.12569	-0.01986
47.19812	-0.01180
47.26021	-0.01470
47.31195	-0.01357
47.35335	-0.01003
47.40509	-0.01196
47.44648	-0.01341
47.49822	-0.01470
47.54996	-0.01148
47.60170	-0.01406
47.65344	-0.01245
47.69484	-0.01357
47.73623	-0.01325
47.77762	-0.01341
47.82936	-0.01116
47.88110	-0.01228
47.92250	-0.01551
47.98459	-0.01631
48.02598	-0.01357
48.07772	-0.01212
48.13981	-0.01373
48.19155	-0.01518
48.23294	-0.01132
48.28468	-0.01067
48.31573	-0.01422
48.35712	-0.01535
48.38816	-0.01502
48.41921	-0.01551
48.46060	-0.01196
48.49165	-0.01373
48.52269	-0.00987
48.55374	-0.01535
48.58478	-0.01325
48.61583	-0.01228
48.64687	-0.01067
48.67791	-0.01647
48.69861	-0.00697
48.71931	-0.00294
48.75035	-0.00665
48.77105	-0.00632
48.80209	-0.00713
48.83314	-0.00938
48.87453	-0.00890
48.90557	-0.00842
48.94697	-0.00777
48.98836	-0.00455
49.06080	-0.00810
49.13324	-0.01406
49.19532	-0.00987
49.24707	-0.01277
49.28846	-0.00971
49.31950	-0.01083
49.36090	-0.00842
49.40229	-0.01470
49.46438	-0.01325
49.53681	-0.00665
49.59890	-0.01228
49.65064	-0.01067
49.70239	-0.01035
49.74378	-0.00794
49.80587	-0.01100
49.86796	-0.00858
49.90935	-0.01148
49.96109	-0.01406
50.00248	-0.01261
50.05422	-0.00487
50.11631	-0.00890
50.16805	-0.01116
50.23014	-0.01116
50.28188	-0.01132
50.32328	-0.01212
50.38537	-0.01373
50.44746	-0.01148
50.50955	-0.01309
50.57163	-0.01083
50.62338	-0.01212
50.67512	-0.01212
50.72686	-0.01406
50.76825	-0.00922
50.80964	-0.00842
50.86138	-0.01003
50.91312	-0.00826
50.97521	-0.01003
51.03730	-0.01100
51.09939	-0.01196
51.15113	-0.01180
51.20287	-0.01261
51.24427	-0.01083
51.29601	-0.00922
51.33740	-0.01132
51.37879	-0.01100
51.42019	-0.01373
51.46158	-0.00955
51.50297	-0.01309
51.53402	-0.01277
51.57541	-0.00922
51.60645	-0.01663
51.64785	-0.01196
51.68924	-0.01406
51.73063	-0.00938
51.77203	-0.01373
51.82377	-0.01067
51.86516	-0.01067
51.91690	-0.00777
51.95829	-0.01116
52.02038	-0.00922
52.08247	-0.01132
52.14456	-0.01132
52.18595	-0.01035
52.21700	-0.00890
52.26874	-0.01035
52.31013	-0.01100
52.35152	-0.01309
52.40327	-0.01518
52.44466	-0.01309
52.49640	-0.01100
52.54814	-0.01067
52.61023	-0.00713
52.67232	-0.01422
52.72406	-0.00906
52.78615	-0.00842
52.83789	-0.01228
52.91033	-0.00745
52.98276	-0.01390
53.06555	-0.01390
53.14834	-0.01100
53.21042	-0.01470
53.27251	-0.01309
53.33460	-0.01116
53.39669	-0.00858
53.45878	-0.01567
53.51052	-0.01502
53.56226	-0.01019
53.62435	-0.01100
53.67609	-0.01196
53.71749	-0.01454
53.75888	-0.01309
53.80027	-0.01245
53.84166	-0.00906
53.88306	-0.01309
53.93480	-0.01373
53.97619	-0.01132
54.00724	-0.01067
54.04863	-0.01003
54.09002	-0.01502
54.14176	-0.01116
54.20385	-0.01003
54.26594	-0.01035
54.32803	-0.01728
54.37977	-0.01599
54.44186	-0.00858
54.49360	-0.01277
54.55569	-0.01212
54.62813	-0.00745
54.69022	-0.01228
54.75231	-0.01293
54.80405	-0.00971
54.85579	-0.01277
54.90753	-0.01341
54.95927	-0.01357
55.02136	-0.01454
55.07310	-0.01744
55.11449	-0.01615
55.16623	-0.01051
55.21797	-0.01357
55.26972	-0.01438
55.31111	-0.01422
55.36285	-0.00858
55.40424	-0.01373
55.43529	-0.01228
55.47668	-0.01067
55.52842	-0.01341
55.56981	-0.01100
55.61121	-0.01180
55.65260	-0.01164
55.70434	-0.01277
55.74573	-0.01083
55.77678	-0.01019
55.81817	-0.01228
55.85956	-0.01309
55.90096	-0.01535
55.94235	-0.01261
55.98374	-0.01132
56.03548	-0.01680
56.08722	-0.01486
56.13896	-0.01228
56.19070	-0.01341
56.26314	-0.01212
56.31488	-0.01341
56.38732	-0.01373
56.45976	-0.01390
56.52185	-0.01277
56.57359	-0.01116
56.62533	-0.01261
56.68742	-0.01680
56.74951	-0.01518
56.82194	-0.01325
56.86334	-0.01422
56.90473	-0.01357
56.94612	-0.01228
56.98752	-0.01116
57.03926	-0.01454
57.09100	-0.01019
57.13239	-0.01518
57.18413	-0.00938
57.22552	-0.01261
57.26692	-0.01293
57.30831	-0.01019
57.36005	-0.01083
57.40144	-0.01535
57.45318	-0.01309
57.49458	-0.01309
57.54632	-0.01373
57.58771	-0.01164
57.64980	-0.01148
57.70154	-0.01019
57.76363	-0.01438
57.82572	-0.01309
57.88781	-0.01373
57.96025	-0.01390
58.04303	-0.00955
58.11547	-0.01357
58.18791	-0.01406
58.26034	-0.01180
58.31209	-0.01341
58.36383	-0.01470
58.40522	-0.00955
58.44661	-0.01390
58.48800	-0.01390
58.52940	-0.01406
58.55009	-0.01309
58.57079	-0.01357
58.60183	-0.01422
58.62253	-0.01390
58.65358	-0.01438
58.68462	-0.01100
58.71566	-0.01277
58.75706	-0.01277
58.79845	-0.01100
58.83984	-0.01341
58.88124	-0.00713
58.93298	-0.01454
58.98472	-0.00971
59.02611	-0.01438
59.07785	-0.01357
59.11924	-0.00938
59.17099	-0.01599
59.23307	-0.00649
59.27447	-0.01615
59.30551	-0.01486
59.33656	-0.01245
59.36760	-0.01438
59.39865	-0.01132
59.45039	-0.01245
59.49178	-0.00616
59.53317	-0.01309
59.56422	-0.01309
59.58491	-0.01164
59.61596	-0.01196
59.65735	-0.01100
59.69874	-0.01196
59.75048	-0.01132
59.80223	-0.01921
59.85397	-0.00987
59.90571	-0.01245
59.94710	-0.01422
59.98849	-0.00826
60.02989	-0.01261
60.06093	-0.01325
60.10232	-0.00922
60.13337	-0.01148
60.16441	-0.01212
60.19546	-0.01003
60.22650	-0.01100
60.25755	-0.01180
60.28859	-0.01454
60.32998	-0.01116
60.37138	-0.00890
60.41277	-0.01357
60.45416	-0.01277
60.48521	-0.01228
60.52660	-0.01357
60.57834	-0.01228
60.63008	-0.00761
60.68182	-0.01148
60.73356	-0.00794
60.78530	-0.01003
60.82670	-0.00955
60.87844	-0.01406
60.90948	-0.01728
60.97157	-0.01228
61.02331	-0.01390
61.08540	-0.00858
61.14749	-0.01277
61.20958	-0.01245
61.26132	-0.01357
61.31306	-0.01083
61.36480	-0.01228
61.42689	-0.00987
61.48898	-0.00971
61.56142	-0.00761
61.62351	-0.01212
61.68560	-0.01132
61.73734	-0.01245
61.78908	-0.00713
61.84082	-0.00761
61.87186	-0.01212
61.91326	-0.00697
61.96500	-0.01341
62.02709	-0.00938
62.07883	-0.01051
62.12022	-0.01293
62.15127	-0.01245
62.19266	-0.01019
62.22370	-0.01035
62.27544	-0.00761
62.31684	-0.00955
62.35823	-0.01325
62.40997	-0.01083
62.46171	-0.01792
62.50310	-0.00955
62.55485	-0.00987
62.61693	-0.01277
62.66868	-0.01373
62.73076	-0.00971
62.78251	-0.01373
62.84459	-0.00987
62.90668	-0.01132
62.96877	-0.01196
63.03086	-0.01035
63.09295	-0.01357
63.13434	-0.01470
63.16539	-0.01003
63.20678	-0.00810
63.23783	-0.00794
63.26887	-0.01003
63.29992	-0.01551
63.33096	-0.00858
63.36200	-0.00906
63.40340	-0.01180
63.44479	-0.00681
63.49653	-0.00745
63.53792	-0.01438
63.58967	-0.01003
63.63106	-0.01116
63.68280	-0.00955
63.72419	-0.01019
63.77593	-0.01712
63.81733	-0.00987
63.86907	-0.01003
63.90011	-0.00665
63.93116	-0.00971
63.96220	-0.01083
63.99324	-0.00794
64.03464	-0.00761
64.06568	-0.00745
64.10707	-0.00777
64.13812	-0.00810
64.16916	-0.00842
64.20021	-0.00826
64.22091	-0.00568
64.24160	-0.00874
64.27265	-0.00810
64.30369	-0.00697
64.34508	-0.00987
64.39682	-0.00761
64.43822	-0.01245
64.48996	-0.01067
64.52100	-0.00890
64.54170	-0.01051
64.56240	-0.01261
64.59344	-0.00794
64.61414	-0.00745
64.64518	-0.00858
64.67623	-0.00858
64.71762	-0.01148
64.74866	-0.01261
64.79006	-0.01051
64.82110	-0.01373
64.85214	-0.01228
64.89354	-0.00600
64.93493	-0.00987
64.98667	-0.01212
65.01772	-0.00810
65.04876	-0.01132
65.09015	-0.00761
65.12120	-0.00858
65.16259	-0.00826
65.20398	-0.00584
65.24538	-0.00455
65.29712	-0.00359
65.33851	-0.00794
65.37990	-0.00842
65.42130	-0.00665
65.46269	-0.01116
65.51443	-0.00294
65.56617	-0.00632
65.62826	-0.00794
65.69035	-0.01003
65.76279	-0.01196
65.84557	-0.00681
65.92836	-0.00665
65.99045	-0.00794
66.03184	-0.00826
66.08358	-0.00262
66.12497	-0.00922
66.16637	-0.00649
66.20776	-0.00777
66.24915	-0.00455
66.29054	-0.00359
66.34229	-0.00858
66.37333	-0.00310
66.41472	-0.00407
66.45612	-0.00600
66.49751	-0.00471
66.53890	-0.00520
66.58029	-0.00729
66.61134	-0.00584
66.63203	-0.00536
66.66308	-0.00713
66.70447	-0.00665
66.74586	-0.01067
66.78726	-0.00810
66.81830	-0.00487
66.85970	-0.00326
66.90109	-0.00568
66.95283	-0.00149
66.98387	-0.00568
67.02527	-0.00890
67.05631	-0.00810
67.08736	-0.00439
67.12875	-0.00713
67.15979	-0.00520
67.19084	-0.00310
67.23223	-0.00197
67.27362	-0.00246
67.30467	-0.00568
67.33571	-0.00649
67.36676	-0.00568
67.38745	-0.00938
67.41850	-0.00455
67.45989	-0.00922
67.50128	-0.01245
67.54268	-0.00938
67.57372	-0.00649
67.60477	-0.00729
67.64616	-0.00874
67.67720	-0.00230
67.71860	-0.00697
67.74964	-0.00117
67.79103	-0.00407
67.82208	-0.00407
67.85312	-0.00471
67.87382	-0.00858
67.90486	-0.00761
67.92556	-0.00455
67.94626	-0.00471
67.95660	-0.00600
67.98765	-0.00359
68.00834	-0.00600
68.03939	-0.00117
68.09113	-0.00471
68.14287	-0.00504
68.20496	-0.00197
68.26705	0.00205
68.34984	-0.00165
68.42227	-0.00214
68.51541	-0.00197
68.60854	-0.00391
68.69133	-0.00246
68.76376	-0.00407
68.84655	-0.00616
68.91899	-0.00149
68.98108	-0.00520
69.04316	-0.00197
69.09491	0.00125
69.14665	-0.00359
69.19839	-0.00214
69.23978	-0.00697
69.28117	-0.00375
69.32257	-0.00230
69.37431	-0.00552
69.42605	-0.00520
69.48814	-0.00471
69.55023	-0.00004
69.61232	-0.00342
69.68475	-0.00197
69.74684	-0.00342
69.80893	0.00076
69.86067	-0.00004
69.91241	0.00366
69.96415	-0.00197
70.00555	-0.00052
70.06764	-0.00085
70.11938	-0.00085
70.18147	0.00141
70.22286	-0.00246
70.28495	-0.00342
70.34704	-0.00310
70.39878	-0.00052
70.45052	0.00125
70.50226	0.00012
70.55400	0.00012
70.60574	0.00012
70.64713	-0.00101
70.67818	-0.00294
70.74027	-0.00423
70.78166	0.00125
70.84375	0.00157
70.91619	-0.00246
70.97828	0.00141
71.04037	-0.00310
71.11280	0.00238
71.18524	-0.00101
71.23698	0.00221
71.27837	-0.00359
71.33012	0.00141
71.38186	-0.00085
71.42325	0.00060
71.46464	0.00479
71.50604	0.00076
71.53708	0.00157
71.56812	0.00431
71.58882	0.00012
71.61987	0.00495
71.65091	0.00511
71.69230	0.00044
71.72335	0.00560
71.76474	0.00705
71.80613	0.00930
71.85787	0.00785
71.90961	0.01140
71.95101	0.00592
72.00275	0.00914
72.06484	0.01124
72.12693	0.01317
72.18902	0.00882
72.24076	0.01365
72.28215	0.01542
72.32354	0.01381
72.36494	0.01188
72.40633	0.01011
72.44772	0.01365
72.50981	0.01236
72.56155	0.01559
72.62364	0.01301
72.68573	0.00962
72.74782	0.00914
72.80991	0.00898
72.87200	0.00785
72.93409	0.01285
72.99618	0.00801
73.06861	0.00221
73.13070	0.00157
73.18244	0.00560
73.24453	0.00141
73.28592	0.00656
73.33767	0.00383
73.37906	0.00721
73.41010	0.00109
73.43080	0.00399
73.45150	0.00302
73.47219	0.00447
73.49289	0.00624
73.52393	-0.00004
73.55498	0.00270
73.58602	-0.00036
73.61707	0.00238
73.65846	0.00334
73.69985	0.00270
73.74125	0.00399
73.79299	-0.00004
73.84473	0.00399
73.88612	0.00189
73.93786	0.00318
73.97925	0.00221
74.04134	0.00302
74.09308	0.00157
74.16552	0.00157
74.22761	0.00415
74.27935	-0.00052
74.33109	0.00044
74.38283	0.00286
74.42423	0.00415
74.47597	0.00463
74.50701	0.00109
74.53806	0.00012
74.56910	0.00254
74.61049	0.00076
74.65189	0.00060
74.70363	0.00463
74.76572	0.00479
74.83815	-0.00020
74.92094	0.00173
75.00373	0.00592
75.09686	0.00592
75.16930	0.00366
75.22104	0.00318
75.29347	-0.00036
75.36591	0.00463
75.43835	0.00060
75.49009	0.00254
75.54183	0.00527
75.58322	0.00447
75.61427	0.00511
75.66601	-0.00036
75.70740	0.00383
75.75914	0.00366
75.80054	0.00238
75.84193	0.00656
75.88332	0.00254
75.93506	0.00527
75.97646	0.00189
76.02820	0.00608
76.10063	0.00109
76.18342	0.00495
76.27655	0.00753
76.36969	0.00608
76.44212	0.00318
76.52491	0.00544
76.59735	0.00141
76.66978	0.00399
76.73187	0.00399
76.79396	0.00399
76.83536	0.00350
76.87675	0.00640
76.93884	0.00624
77.01128	0.00801
77.06302	0.00672
77.11476	0.00592
77.17685	0.00447
77.21824	0.00817
77.26998	0.00592
77.31137	0.00157
77.35277	0.00366
77.38381	0.00527
77.42520	0.00737
77.46660	0.00753
77.50799	0.00415
77.55973	0.00383
77.61147	0.00640
77.66321	0.00576
77.72530	0.00093
77.77704	0.00383
77.82878	0.00544
77.89087	0.00850
77.95296	0.00560
78.01505	0.00334
78.07714	0.00560
78.14958	0.00511
78.21167	0.00705
78.26341	0.00592
78.31515	0.00302
78.36689	0.00415
78.42898	0.00431
78.48072	0.00705
78.53246	0.00721
78.57385	0.00560
78.61525	0.00350
78.65664	0.00383
78.70838	0.00656
78.78082	0.00672
78.85325	0.00817
78.93604	0.00270
79.02917	0.00527
79.13266	0.00850
79.23614	0.00624
79.32927	0.00624
79.41206	0.00882
79.45345	0.01011
79.52589	0.00479
79.58798	0.01091
79.63972	0.00946
79.69146	0.00689
79.72250	0.01156
79.76390	0.00640
79.80529	0.00882
79.84668	0.00431
79.89842	0.00624
79.95016	0.00817
80.02260	0.00672